frequency (Hz),value calibrated mic (dB),value uncalibrated mic (dB),absolute variation (%),gain factor
25,0.0033413128178733584,-0.018055198950984834,-118.50609803272815,-0.18506098032728152
31,-0.010376634752905765,-0.010978944241951347,-5.486041970630599,0.945139580293694
39,-0.02276307614255944,-0.02452876754383449,-7.198451361731268,0.9280154863826874
50,0.0013755153275933933,0.00075953405924286,81.09988760274594,1.8109988760274593
62,0.05812382400830181,0.05776234043279867,0.6258118573358273,1.0062581185733583
79,-0.08258359300602196,-0.08516896325704594,-3.0355779290410676,0.9696442207095893
99,0.08600712609947542,0.08917772326455395,3.5553690417422548,0.9644463095825775
125,-0.10522989603417267,-0.10770035978485151,-2.2938305457976056,0.977061694542024
157,-0.013558620285111064,-0.0173366255444162,-21.79204511065858,0.7820795488934141
198,-0.0011980655681789103,-0.0025384822642464016,-52.80386295964216,0.47196137040357833
250,0.06783625550884913,0.07316902555322838,7.288289004887476,0.9271171099511252
315,-0.04053581291638905,-0.039856451712545087,-1.704520032901304,1.0170452003290131
397,0.03294501591198688,0.03141475790923143,4.871143706333574,1.0487114370633357
500,-0.021463824038637606,-0.022156088473019336,-3.1244884909389024,0.9687551150906109
630,0.007911903703276895,0.010049262283946647,21.268810787077474,0.7873118921292251
794,-0.0070999136067792885,-0.009985504983807578,-28.897801179885676,0.7110219882011432
1000,0.011351391620013489,0.010783180235898093,5.269423042969959,1.0526942304296996
1260,0.009875954409779565,0.009185220719047486,7.520055444064599,1.0752005544406462
1587,-0.003598835499697753,0.024793339783876014,114.5153316619256,-0.1451533166192561
2000,-0.019078061663516294,-0.017017679326463062,-12.107304982820239,1.1210730498282022
2520,0.00538729793648882,0.005665468039467193,4.909922729076659,0.9509007727092333
3175,-0.00510533096619447,-0.0030305857604322507,-68.46020438855027,1.6846020438855025
4000,0.008058524489023978,0.00913104062535201,11.74582591769692,0.8825417408230307
5040,-0.01956864253771084,-0.02911860706208132,-32.796776659027024,0.6720322334097297
6350,-0.06042844618042963,-0.047249736196438435,-27.89160542442261,1.2789160542442262
8000,0.04562839063933057,0.02546985829126241,79.14662153806984,1.7914662153806984
10079,0.0050711449179010075,-0.029912955500528946,-116.95300525490147,-0.1695300525490146
12699,0.04746201090450971,0.062339735703885686,23.86555642462988,0.7613444357537013
16000,-0.01383640968903638,-0.016655384603941756,-16.92530663169569,0.8307469336830431
20000,0.020343539312434118,0.015230351403173697,33.572356762529694,1.335723567625297
